Autor: Alex; Typ filtru: Dolní propust; Aproximace: Èebyšev; Rad: 1.000000; Nizka frekvence: 40.000000; Vysoka frekvence: 50.000000; Datum a cas mereni: 23.12.2021 21:18; Minimalni frekvencei: 1.000000; Maximalni frekvence: 100.000000; Krok: 1.000000; Vypoctena frez: 39.594412;
Frekvence (Hz): ; Napeti (V): ; Prenos (dB): ;
1.000000; 2.999060; -0.002722;
2.000000; -0.026533; NaN;
3.000000; -1.778967; NaN;
4.000000; -0.005262; NaN;
5.000000; 2.715692; -0.864815;
6.000000; 2.966928; -0.096285;
7.000000; 2.955290; -0.130423;
8.000000; 2.942022; -0.169507;
9.000000; 2.926847; -0.214425;
10.000000; 2.910005; -0.264550;
11.000000; 2.892185; -0.317904;
12.000000; 2.874516; -0.371130;
13.000000; 2.854292; -0.432457;
14.000000; 2.832962; -0.497610;
15.000000; 2.810245; -0.567541;
16.000000; 2.786572; -0.641020;
17.000000; 2.762550; -0.716222;
18.000000; 2.737571; -0.795117;
19.000000; 2.711867; -0.877057;
20.000000; 2.684100; -0.966451;
21.000000; 2.657464; -1.053077;
22.000000; 2.629739; -1.144172;
23.000000; 2.601554; -1.237768;
24.000000; 2.574776; -1.327636;
25.000000; 2.545893; -1.425622;
26.000000; 2.516811; -1.525413;
27.000000; 2.481964; -1.646516;
28.000000; 2.459571; -1.725238;
29.000000; 2.430929; -1.826980;
30.000000; 2.401757; -1.931844;
31.000000; 2.372985; -2.036525;
32.000000; 2.341576; -2.152260;
33.000000; 2.315028; -2.251300;
34.000000; 2.285324; -2.363469;
35.000000; 2.258916; -2.464423;
36.000000; 2.230477; -2.574470;
37.000000; 2.192981; -2.721728;
38.000000; 2.174968; -2.793368;
39.000000; 2.146502; -2.907799;
40.000000; 2.108510; -3.062912;
41.000000; 2.094181; -3.122141;
42.000000; 2.067897; -3.231847;
43.000000; 2.041656; -3.342774;
44.000000; 2.016786; -3.449229;
45.000000; 1.991176; -3.560232;
46.000000; 1.966079; -3.670406;
47.000000; 1.942069; -3.777132;
48.000000; 1.917857; -3.886101;
49.000000; 1.894080; -3.994459;
50.000000; 1.850583; -4.196254;
51.000000; 1.846660; -4.214686;
52.000000; 1.824827; -4.317991;
53.000000; 1.802254; -4.426105;
54.000000; 1.778017; -4.543707;
55.000000; 1.758549; -4.639336;
56.000000; 1.737769; -4.742584;
57.000000; 1.716934; -4.847353;
58.000000; 1.696153; -4.953125;
59.000000; 1.673658; -5.069091;
60.000000; 1.656366; -5.159299;
61.000000; 1.636943; -5.261754;
62.000000; 1.617249; -5.366887;
63.000000; 1.598948; -5.465738;
64.000000; 1.580469; -5.566705;
65.000000; 1.562304; -5.667114;
66.000000; 1.544259; -5.768022;
67.000000; 1.526904; -5.866190;
68.000000; 1.509471; -5.965930;
69.000000; 1.492717; -6.062876;
70.000000; 1.476057; -6.160363;
71.000000; 1.459698; -6.257165;
72.000000; 1.443248; -6.355606;
73.000000; 1.427640; -6.450051;
74.000000; 1.409204; -6.562948;
75.000000; 1.396993; -6.638540;
76.000000; 1.381101; -6.737916;
77.000000; 1.366754; -6.828618;
78.000000; 1.352487; -6.919763;
79.000000; 1.336720; -7.021616;
80.000000; 1.323401; -7.108596;
81.000000; 1.309560; -7.199917;
82.000000; 1.295698; -7.292349;
83.000000; 1.283741; -7.372877;
84.000000; 1.270382; -7.463738;
85.000000; 1.257655; -7.551195;
86.000000; 1.244749; -7.640789;
87.000000; 1.231909; -7.730853;
88.000000; 1.220246; -7.813477;
89.000000; 1.208121; -7.900216;
90.000000; 1.195864; -7.988789;
91.000000; 1.184553; -8.071335;
92.000000; 1.172789; -8.158027;
93.000000; 1.161712; -8.240456;
94.000000; 1.150488; -8.324783;
95.000000; 1.136600; -8.430272;
96.000000; 1.128746; -8.490501;
97.000000; 1.118112; -8.572719;
98.000000; 1.107220; -8.657747;
99.000000; 1.097092; -8.737564;
100.000000; 1.086474; -8.822038;
